Tungsten (Z=74) photon attenuation
Energy (MeV) Attenuation (1/cm)
1.00000e-03 7.090e+04
1.50000e-03 3.163e+04
1.80920e-03 2.133e+04
1.80920e-03 2.554e+04
1.84014e-03 3.679e+04
1.87160e-03 5.584e+04
1.87160e-03 6.102e+04
2.00000e-03 7.550e+04
2.28100e-03 5.444e+04
2.28100e-03 6.312e+04
2.42350e-03 5.454e+04
2.57490e-03 4.707e+04
2.57490e-03 5.003e+04
2.69447e-03 4.503e+04
2.81960e-03 4.050e+04
2.81960e-03 4.223e+04
3.00000e-03 3.661e+04
4.00000e-03 1.841e+04
5.00000e-03 1.065e+04
6.00000e-03 6.764e+03
8.00000e-03 3.282e+03
1.00000e-02 1.866e+03
1.02068e-02 1.771e+03
1.02068e-02 4.493e+03
1.08548e-02 3.817e+03
1.15440e-02 3.251e+03
1.15440e-02 4.451e+03
1.18186e-02 4.366e+03
1.20998e-02 3.975e+03
1.20998e-02 4.585e+03
1.50000e-02 2.674e+03
2.00000e-02 1.265e+03
3.00000e-02 4.376e+02
4.00000e-02 2.054e+02
5.00000e-02 1.145e+02
6.00000e-02 7.148e+01
6.95250e-02 4.913e+01
6.95250e-02 2.162e+02
8.00000e-02 1.503e+02
1.00000e-01 8.543e+01
1.50000e-01 3.043e+01
2.00000e-01 1.510e+01
3.00000e-01 6.233e+00
4.00000e-01 3.706e+00
5.00000e-01 2.653e+00
6.00000e-01 2.104e+00
8.00000e-01 1.553e+00
1.00000e+00 1.274e+00
1.25000e+00 1.074e+00
1.50000e+00 9.625e-01
2.00000e+00 8.534e-01
3.00000e+00 7.844e-01
4.00000e+00 7.773e-01
5.00000e+00 7.898e-01
6.00000e+00 8.104e-01
8.00000e+00 8.609e-01
1.00000e+01 9.138e-01
1.50000e+01 1.036e+00
2.00000e+01 1.134e+00
