Iridium (Z=77) photon attenuation
Energy (MeV) Attenuation (1/cm)
1.00000e-03 9.572e+04
1.50000e-03 4.282e+04
2.00000e-03 2.328e+04
2.04040e-03 2.229e+04
2.04040e-03 2.405e+04
2.07790e-03 3.366e+04
2.11610e-03 5.590e+04
2.11610e-03 5.884e+04
2.32326e-03 5.913e+04
2.55070e-03 5.469e+04
2.55070e-03 6.317e+04
2.72382e-03 5.399e+04
2.90870e-03 4.604e+04
2.90870e-03 4.886e+04
3.00000e-03 4.537e+04
3.17370e-03 3.986e+04
3.17370e-03 4.158e+04
4.00000e-03 2.398e+04
5.00000e-03 1.394e+04
6.00000e-03 8.877e+03
8.00000e-03 4.318e+03
1.00000e-02 2.459e+03
1.12154e-02 1.840e+03
1.12154e-02 4.598e+03
1.19928e-02 3.840e+03
1.28241e-02 3.217e+03
1.28241e-02 4.420e+03
1.31179e-02 4.361e+03
1.34185e-02 3.962e+03
1.34185e-02 4.568e+03
1.50000e-02 3.452e+03
2.00000e-02 1.651e+03
3.00000e-02 5.744e+02
4.00000e-02 2.705e+02
5.00000e-02 1.510e+02
6.00000e-02 9.421e+01
7.61110e-02 5.153e+01
7.61110e-02 2.195e+02
8.00000e-02 1.937e+02
1.00000e-01 1.095e+02
1.50000e-01 3.925e+01
2.00000e-01 1.946e+01
3.00000e-01 7.952e+00
4.00000e-01 4.665e+00
5.00000e-01 3.301e+00
6.00000e-01 2.592e+00
8.00000e-01 1.885e+00
1.00000e+00 1.533e+00
1.25000e+00 1.283e+00
1.50000e+00 1.147e+00
2.00000e+00 1.015e+00
3.00000e+00 9.338e-01
4.00000e+00 9.259e-01
5.00000e+00 9.417e-01
6.00000e+00 9.669e-01
8.00000e+00 1.028e+00
1.00000e+01 1.093e+00
1.50000e+01 1.241e+00
2.00000e+01 1.359e+00
