Thorium (Z=90) photon attenuation
Energy (MeV) Attenuation (1/cm)
1.00000e-03 7.754e+04
1.08088e-03 6.738e+04
1.16830e-03 5.834e+04
1.16830e-03 5.918e+04
1.24630e-03 5.232e+04
1.32950e-03 4.616e+04
1.32950e-03 4.710e+04
1.50000e-03 3.706e+04
2.00000e-03 2.042e+04
3.00000e-03 8.418e+03
3.33200e-03 6.649e+03
3.33200e-03 1.634e+04
3.41048e-03 1.529e+04
3.49080e-03 1.437e+04
3.49080e-03 2.051e+04
4.00000e-03 1.469e+04
4.04610e-03 1.427e+04
4.04610e-03 1.659e+04
4.42089e-03 1.333e+04
4.83040e-03 1.067e+04
4.83040e-03 1.132e+04
5.00000e-03 1.041e+04
5.18230e-03 9.530e+03
5.18230e-03 9.938e+03
6.00000e-03 6.970e+03
8.00000e-03 3.446e+03
1.00000e-02 1.980e+03
1.50000e-02 7.200e+02
1.63003e-02 5.851e+02
1.63003e-02 1.355e+03
1.79166e-02 1.163e+03
1.96932e-02 8.188e+02
1.96932e-02 1.117e+03
2.00000e-02 1.098e+03
2.04721e-02 1.038e+03
2.04721e-02 1.194e+03
3.00000e-02 4.563e+02
4.00000e-02 2.187e+02
5.00000e-02 1.233e+02
6.00000e-02 7.728e+01
8.00000e-02 3.726e+01
1.00000e-01 2.145e+01
1.09651e-01 1.718e+01
1.09651e-01 6.256e+01
1.50000e-01 2.898e+01
2.00000e-01 1.447e+01
3.00000e-01 5.790e+00
4.00000e-01 3.270e+00
5.00000e-01 2.222e+00
6.00000e-01 1.682e+00
8.00000e-01 1.156e+00
1.00000e+00 9.038e-01
1.25000e+00 7.329e-01
1.50000e+00 6.446e-01
2.00000e+00 5.642e-01
3.00000e+00 5.154e-01
4.00000e+00 5.096e-01
5.00000e+00 5.183e-01
6.00000e+00 5.325e-01
8.00000e+00 5.670e-01
1.00000e+01 6.037e-01
1.50000e+01 6.883e-01
2.00000e+01 7.558e-01
