Uranium (Z=92) photon attenuation
Energy (MeV) Attenuation (1/cm)
1.00000e-03 1.266e+05
1.02220e-03 1.218e+05
1.04490e-03 1.170e+05
1.04490e-03 1.245e+05
1.15314e-03 1.040e+05
1.27260e-03 8.645e+04
1.27260e-03 8.765e+04
1.35409e-03 7.764e+04
1.44080e-03 6.872e+04
1.44080e-03 7.006e+04
1.50000e-03 6.460e+04
2.00000e-03 3.562e+04
3.00000e-03 1.469e+04
3.55170e-03 1.004e+04
3.55170e-03 2.418e+04
3.63859e-03 2.269e+04
3.72760e-03 2.124e+04
3.72760e-03 3.022e+04
4.00000e-03 2.538e+04
4.30340e-03 2.120e+04
4.30340e-03 2.468e+04
5.00000e-03 1.698e+04
5.18220e-03 1.551e+04
5.18220e-03 1.645e+04
5.36198e-03 1.512e+04
5.54800e-03 1.391e+04
5.54800e-03 1.450e+04
6.00000e-03 1.200e+04
8.00000e-03 5.936e+03
1.00000e-02 3.421e+03
1.50000e-02 1.247e+03
1.71663e-02 8.906e+02
1.71663e-02 2.044e+03
2.00000e-02 1.357e+03
2.09476e-02 1.203e+03
2.09476e-02 1.688e+03
2.13487e-02 1.817e+03
2.17574e-02 1.532e+03
2.17574e-02 1.761e+03
3.00000e-02 7.884e+02
4.00000e-02 3.788e+02
5.00000e-02 2.141e+02
6.00000e-02 1.344e+02
8.00000e-02 6.484e+01
1.00000e-01 3.732e+01
1.15606e-01 2.632e+01
1.15606e-01 9.346e+01
1.50000e-01 4.949e+01
2.00000e-01 2.479e+01
3.00000e-01 9.917e+00
4.00000e-01 5.581e+00
5.00000e-01 3.774e+00
6.00000e-01 2.846e+00
8.00000e-01 1.941e+00
1.00000e+00 1.508e+00
1.25000e+00 1.217e+00
1.50000e+00 1.067e+00
2.00000e+00 9.317e-01
3.00000e+00 8.494e-01
4.00000e+00 8.389e-01
5.00000e+00 8.524e-01
6.00000e+00 8.754e-01
8.00000e+00 9.319e-01
1.00000e+01 9.922e-01
1.50000e+01 1.132e+00
2.00000e+01 1.244e+00
